#  E (eV)   dos(E)     Int dos(E) EFermi =   20.767 eV
 -20.000  0.0000E+00  0.1200E+02
 -19.950  0.0000E+00  0.1200E+02
 -19.900  0.0000E+00  0.1200E+02
 -19.850  0.0000E+00  0.1200E+02
 -19.800  0.0000E+00  0.1200E+02
 -19.750  0.0000E+00  0.1200E+02
 -19.700  0.0000E+00  0.1200E+02
 -19.650  0.0000E+00  0.1200E+02
 -19.600  0.0000E+00  0.1200E+02
 -19.550  0.0000E+00  0.1200E+02
 -19.500  0.0000E+00  0.1200E+02
 -19.450  0.0000E+00  0.1200E+02
 -19.400  0.0000E+00  0.1200E+02
 -19.350  0.0000E+00  0.1200E+02
 -19.300  0.0000E+00  0.1200E+02
 -19.250  0.0000E+00  0.1200E+02
 -19.200  0.0000E+00  0.1200E+02
 -19.150  0.0000E+00  0.1200E+02
 -19.100  0.0000E+00  0.1200E+02
 -19.050  0.0000E+00  0.1200E+02
 -19.000  0.0000E+00  0.1200E+02
 -18.950  0.0000E+00  0.1200E+02
 -18.900  0.0000E+00  0.1200E+02
 -18.850  0.0000E+00  0.1200E+02
 -18.800  0.0000E+00  0.1200E+02
 -18.750  0.0000E+00  0.1200E+02
 -18.700  0.0000E+00  0.1200E+02
 -18.650  0.0000E+00  0.1200E+02
 -18.600  0.0000E+00  0.1200E+02
 -18.550  0.0000E+00  0.1200E+02
 -18.500  0.0000E+00  0.1200E+02
 -18.450  0.0000E+00  0.1200E+02
 -18.400  0.0000E+00  0.1200E+02
 -18.350  0.0000E+00  0.1200E+02
 -18.300  0.0000E+00  0.1200E+02
 -18.250  0.0000E+00  0.1200E+02
 -18.200  0.0000E+00  0.1200E+02
 -18.150  0.0000E+00  0.1200E+02
 -18.100  0.0000E+00  0.1200E+02
 -18.050  0.0000E+00  0.1200E+02
 -18.000  0.0000E+00  0.1200E+02
 -17.950  0.0000E+00  0.1200E+02
 -17.900  0.0000E+00  0.1200E+02
 -17.850  0.0000E+00  0.1200E+02
 -17.800  0.0000E+00  0.1200E+02
 -17.750  0.0000E+00  0.1200E+02
 -17.700  0.0000E+00  0.1200E+02
 -17.650  0.0000E+00  0.1200E+02
 -17.600  0.0000E+00  0.1200E+02
 -17.550  0.0000E+00  0.1200E+02
 -17.500  0.0000E+00  0.1200E+02
 -17.450  0.0000E+00  0.1200E+02
 -17.400  0.0000E+00  0.1200E+02
 -17.350  0.0000E+00  0.1200E+02
 -17.300  0.0000E+00  0.1200E+02
 -17.250  0.0000E+00  0.1200E+02
 -17.200  0.0000E+00  0.1200E+02
 -17.150  0.0000E+00  0.1200E+02
 -17.100  0.0000E+00  0.1200E+02
 -17.050  0.0000E+00  0.1200E+02
 -17.000  0.0000E+00  0.1200E+02
 -16.950  0.0000E+00  0.1200E+02
 -16.900  0.0000E+00  0.1200E+02
 -16.850  0.0000E+00  0.1200E+02
 -16.800  0.0000E+00  0.1200E+02
 -16.750  0.0000E+00  0.1200E+02
 -16.700  0.0000E+00  0.1200E+02
 -16.650  0.0000E+00  0.1200E+02
 -16.600  0.0000E+00  0.1200E+02
 -16.550  0.0000E+00  0.1200E+02
 -16.500  0.0000E+00  0.1200E+02
 -16.450  0.0000E+00  0.1200E+02
 -16.400  0.0000E+00  0.1200E+02
 -16.350  0.0000E+00  0.1200E+02
 -16.300  0.0000E+00  0.1200E+02
 -16.250  0.0000E+00  0.1200E+02
 -16.200  0.0000E+00  0.1200E+02
 -16.150  0.0000E+00  0.1200E+02
 -16.100  0.0000E+00  0.1200E+02
 -16.050  0.0000E+00  0.1200E+02
 -16.000  0.0000E+00  0.1200E+02
 -15.950  0.0000E+00  0.1200E+02
 -15.900  0.0000E+00  0.1200E+02
 -15.850  0.0000E+00  0.1200E+02
 -15.800  0.0000E+00  0.1200E+02
 -15.750  0.0000E+00  0.1200E+02
 -15.700  0.0000E+00  0.1200E+02
 -15.650  0.0000E+00  0.1200E+02
 -15.600  0.0000E+00  0.1200E+02
 -15.550  0.0000E+00  0.1200E+02
 -15.500  0.0000E+00  0.1200E+02
 -15.450  0.0000E+00  0.1200E+02
 -15.400  0.0000E+00  0.1200E+02
 -15.350  0.0000E+00  0.1200E+02
 -15.300  0.0000E+00  0.1200E+02
 -15.250  0.0000E+00  0.1200E+02
 -15.200  0.0000E+00  0.1200E+02
 -15.150  0.0000E+00  0.1200E+02
 -15.100  0.0000E+00  0.1200E+02
 -15.050  0.0000E+00  0.1200E+02
 -15.000  0.0000E+00  0.1200E+02
 -14.950  0.0000E+00  0.1200E+02
 -14.900  0.0000E+00  0.1200E+02
 -14.850  0.0000E+00  0.1200E+02
 -14.800  0.0000E+00  0.1200E+02
 -14.750  0.0000E+00  0.1200E+02
 -14.700  0.0000E+00  0.1200E+02
 -14.650  0.0000E+00  0.1200E+02
 -14.600  0.1114E+01  0.1201E+02
 -14.550  0.4439E+01  0.1218E+02
 -14.500  0.5267E+01  0.1240E+02
 -14.450  0.9069E+01  0.1276E+02
 -14.400  0.1562E+02  0.1351E+02
 -14.350  0.3663E+01  0.1431E+02
 -14.300  0.7030E+01  0.1456E+02
 -14.250  0.2696E+01  0.1485E+02
 -14.200  0.2501E+01  0.1498E+02
 -14.150  0.2122E+01  0.1510E+02
 -14.100  0.1667E+01  0.1519E+02
 -14.050  0.1514E+01  0.1527E+02
 -14.000  0.1497E+01  0.1534E+02
 -13.950  0.1510E+01  0.1542E+02
 -13.900  0.1523E+01  0.1549E+02
 -13.850  0.2186E+01  0.1559E+02
 -13.800  0.5984E+01  0.1580E+02
 -13.750  0.0000E+00  0.1600E+02
 -13.700  0.0000E+00  0.1600E+02
 -13.650  0.0000E+00  0.1600E+02
 -13.600  0.1845E-01  0.1600E+02
 -13.550  0.8530E+01  0.1621E+02
 -13.500  0.1723E+02  0.1685E+02
 -13.450  0.9700E+01  0.1815E+02
 -13.400  0.3241E+02  0.1964E+02
 -13.350  0.1248E+02  0.2124E+02
 -13.300  0.1963E+02  0.2211E+02
 -13.250  0.2738E+02  0.2302E+02
 -13.200  0.1285E+02  0.2374E+02
 -13.150  0.1367E+02  0.2439E+02
 -13.100  0.1429E+02  0.2511E+02
 -13.050  0.1223E+02  0.2581E+02
 -13.000  0.1004E+02  0.2635E+02
 -12.950  0.5268E+02  0.2693E+02
 -12.900  0.1498E+02  0.2766E+02
 -12.850  0.3163E+01  0.2792E+02
 -12.800  0.0000E+00  0.2800E+02
 -12.750  0.0000E+00  0.2800E+02
 -12.700  0.1421E+02  0.2875E+02
 -12.650  0.2747E+02  0.2997E+02
 -12.600  0.2244E+02  0.3103E+02
 -12.550  0.6326E+01  0.3144E+02
 -12.500  0.6693E+01  0.3177E+02
 -12.450  0.6317E+01  0.3210E+02
 -12.400  0.6332E+01  0.3241E+02
 -12.350  0.6743E+01  0.3274E+02
 -12.300  0.8682E+01  0.3311E+02
 -12.250  0.1204E+02  0.3363E+02
 -12.200  0.1152E+02  0.3424E+02
 -12.150  0.9023E+01  0.3475E+02
 -12.100  0.1175E+02  0.3519E+02
 -12.050  0.1911E+02  0.3605E+02
 -12.000  0.2024E+02  0.3700E+02
 -11.950  0.1403E+02  0.3809E+02
 -11.900  0.5798E+01  0.3850E+02
 -11.850  0.5095E+01  0.3876E+02
 -11.800  0.1084E+02  0.3910E+02
 -11.750  0.1140E+02  0.3958E+02
 -11.700  0.2044E+02  0.4032E+02
 -11.650  0.8501E+02  0.4205E+02
 -11.600  0.1607E+02  0.4414E+02
 -11.550  0.1500E+02  0.4488E+02
 -11.500  0.1829E+02  0.4572E+02
 -11.450  0.1311E+02  0.4652E+02
 -11.400  0.1071E+02  0.4710E+02
 -11.350  0.8290E+01  0.4760E+02
 -11.300  0.3690E+01  0.4793E+02
 -11.250  0.0000E+00  0.4800E+02
 -11.200  0.0000E+00  0.4800E+02
 -11.150  0.0000E+00  0.4800E+02
 -11.100  0.0000E+00  0.4800E+02
 -11.050  0.0000E+00  0.4800E+02
 -11.000  0.0000E+00  0.4800E+02
 -10.950  0.0000E+00  0.4800E+02
 -10.900  0.0000E+00  0.4800E+02
 -10.850  0.0000E+00  0.4800E+02
 -10.800  0.0000E+00  0.4800E+02
 -10.750  0.0000E+00  0.4800E+02
 -10.700  0.0000E+00  0.4800E+02
 -10.650  0.0000E+00  0.4800E+02
 -10.600  0.0000E+00  0.4800E+02
 -10.550  0.0000E+00  0.4800E+02
 -10.500  0.0000E+00  0.4800E+02
 -10.450  0.0000E+00  0.4800E+02
 -10.400  0.6312E+00  0.4801E+02
 -10.350  0.1186E+01  0.4807E+02
 -10.300  0.1439E+01  0.4813E+02
 -10.250  0.1694E+01  0.4821E+02
 -10.200  0.1982E+01  0.4830E+02
 -10.150  0.2267E+01  0.4841E+02
 -10.100  0.2565E+01  0.4853E+02
 -10.050  0.2949E+01  0.4867E+02
 -10.000  0.3368E+01  0.4883E+02
  -9.950  0.3858E+01  0.4900E+02
  -9.900  0.5255E+01  0.4923E+02
  -9.850  0.3487E+01  0.4951E+02
  -9.800  0.3052E+01  0.4968E+02
  -9.750  0.2234E+01  0.4981E+02
  -9.700  0.2016E+01  0.4991E+02
  -9.650  0.1326E+01  0.5004E+02
  -9.600  0.1155E+01  0.5010E+02
  -9.550  0.1342E+01  0.5016E+02
  -9.500  0.1512E+01  0.5023E+02
  -9.450  0.1664E+01  0.5031E+02
  -9.400  0.1832E+01  0.5040E+02
  -9.350  0.6881E+01  0.5053E+02
  -9.300  0.9749E+01  0.5083E+02
  -9.250  0.8700E+01  0.5135E+02
  -9.200  0.8233E+01  0.5180E+02
  -9.150  0.0000E+00  0.5200E+02
  -9.100  0.8044E+01  0.5217E+02
  -9.050  0.8401E+01  0.5260E+02
  -9.000  0.7014E+01  0.5304E+02
  -8.950  0.6227E+01  0.5337E+02
  -8.900  0.1509E+02  0.5374E+02
  -8.850  0.1742E+01  0.5393E+02
  -8.800  0.0000E+00  0.5400E+02
  -8.750  0.0000E+00  0.5400E+02
  -8.700  0.0000E+00  0.5400E+02
  -8.650  0.0000E+00  0.5400E+02
  -8.600  0.0000E+00  0.5400E+02
  -8.550  0.0000E+00  0.5400E+02
  -8.500  0.0000E+00  0.5400E+02
  -8.450  0.2579E+01  0.5404E+02
  -8.400  0.2133E+01  0.5414E+02
  -8.350  0.3735E+01  0.5429E+02
  -8.300  0.4053E+01  0.5459E+02
  -8.250  0.3362E+01  0.5477E+02
  -8.200  0.2944E+01  0.5493E+02
  -8.150  0.2655E+01  0.5507E+02
  -8.100  0.2568E+01  0.5520E+02
  -8.050  0.2440E+01  0.5532E+02
  -8.000  0.2463E+01  0.5544E+02
  -7.950  0.2781E+01  0.5558E+02
  -7.900  0.2633E+01  0.5571E+02
  -7.850  0.4183E+01  0.5590E+02
  -7.800  0.0000E+00  0.5600E+02
  -7.750  0.0000E+00  0.5600E+02
  -7.700  0.0000E+00  0.5600E+02
  -7.650  0.0000E+00  0.5600E+02
  -7.600  0.0000E+00  0.5600E+02
  -7.550  0.0000E+00  0.5600E+02
  -7.500  0.0000E+00  0.5600E+02
  -7.450  0.0000E+00  0.5600E+02
  -7.400  0.0000E+00  0.5600E+02
  -7.350  0.0000E+00  0.5600E+02
  -7.300  0.0000E+00  0.5600E+02
  -7.250  0.0000E+00  0.5600E+02
  -7.200  0.0000E+00  0.5600E+02
  -7.150  0.0000E+00  0.5600E+02
  -7.100  0.0000E+00  0.5600E+02
  -7.050  0.0000E+00  0.5600E+02
  -7.000  0.0000E+00  0.5600E+02
  -6.950  0.0000E+00  0.5600E+02
  -6.900  0.0000E+00  0.5600E+02
  -6.850  0.0000E+00  0.5600E+02
  -6.800  0.0000E+00  0.5600E+02
  -6.750  0.0000E+00  0.5600E+02
  -6.700  0.0000E+00  0.5600E+02
  -6.650  0.0000E+00  0.5600E+02
  -6.600  0.0000E+00  0.5600E+02
  -6.550  0.0000E+00  0.5600E+02
  -6.500  0.0000E+00  0.5600E+02
  -6.450  0.0000E+00  0.5600E+02
  -6.400  0.0000E+00  0.5600E+02
  -6.350  0.0000E+00  0.5600E+02
  -6.300  0.0000E+00  0.5600E+02
  -6.250  0.0000E+00  0.5600E+02
  -6.200  0.0000E+00  0.5600E+02
  -6.150  0.0000E+00  0.5600E+02
  -6.100  0.0000E+00  0.5600E+02
  -6.050  0.0000E+00  0.5600E+02
  -6.000  0.0000E+00  0.5600E+02
  -5.950  0.0000E+00  0.5600E+02
  -5.900  0.0000E+00  0.5600E+02
  -5.850  0.0000E+00  0.5600E+02
  -5.800  0.0000E+00  0.5600E+02
  -5.750  0.0000E+00  0.5600E+02
  -5.700  0.0000E+00  0.5600E+02
  -5.650  0.0000E+00  0.5600E+02
  -5.600  0.0000E+00  0.5600E+02
  -5.550  0.0000E+00  0.5600E+02
  -5.500  0.0000E+00  0.5600E+02
  -5.450  0.0000E+00  0.5600E+02
  -5.400  0.0000E+00  0.5600E+02
  -5.350  0.0000E+00  0.5600E+02
  -5.300  0.0000E+00  0.5600E+02
  -5.250  0.0000E+00  0.5600E+02
  -5.200  0.0000E+00  0.5600E+02
  -5.150  0.0000E+00  0.5600E+02
  -5.100  0.0000E+00  0.5600E+02
  -5.050  0.0000E+00  0.5600E+02
  -5.000  0.0000E+00  0.5600E+02
  -4.950  0.0000E+00  0.5600E+02
  -4.900  0.0000E+00  0.5600E+02
  -4.850  0.0000E+00  0.5600E+02
  -4.800  0.0000E+00  0.5600E+02
  -4.750  0.0000E+00  0.5600E+02
  -4.700  0.0000E+00  0.5600E+02
  -4.650  0.0000E+00  0.5600E+02
  -4.600  0.0000E+00  0.5600E+02
  -4.550  0.0000E+00  0.5600E+02
  -4.500  0.0000E+00  0.5600E+02
  -4.450  0.0000E+00  0.5600E+02
  -4.400  0.0000E+00  0.5600E+02
  -4.350  0.0000E+00  0.5600E+02
  -4.300  0.0000E+00  0.5600E+02
  -4.250  0.0000E+00  0.5600E+02
  -4.200  0.0000E+00  0.5600E+02
  -4.150  0.0000E+00  0.5600E+02
  -4.100  0.0000E+00  0.5600E+02
  -4.050  0.0000E+00  0.5600E+02
  -4.000  0.0000E+00  0.5600E+02
  -3.950  0.0000E+00  0.5600E+02
  -3.900  0.0000E+00  0.5600E+02
  -3.850  0.0000E+00  0.5600E+02
  -3.800  0.0000E+00  0.5600E+02
  -3.750  0.0000E+00  0.5600E+02
  -3.700  0.0000E+00  0.5600E+02
  -3.650  0.0000E+00  0.5600E+02
  -3.600  0.0000E+00  0.5600E+02
  -3.550  0.0000E+00  0.5600E+02
  -3.500  0.0000E+00  0.5600E+02
  -3.450  0.0000E+00  0.5600E+02
  -3.400  0.0000E+00  0.5600E+02
  -3.350  0.0000E+00  0.5600E+02
  -3.300  0.0000E+00  0.5600E+02
  -3.250  0.0000E+00  0.5600E+02
  -3.200  0.0000E+00  0.5600E+02
  -3.150  0.0000E+00  0.5600E+02
  -3.100  0.0000E+00  0.5600E+02
  -3.050  0.0000E+00  0.5600E+02
  -3.000  0.0000E+00  0.5600E+02
  -2.950  0.0000E+00  0.5600E+02
  -2.900  0.0000E+00  0.5600E+02
  -2.850  0.0000E+00  0.5600E+02
  -2.800  0.0000E+00  0.5600E+02
  -2.750  0.0000E+00  0.5600E+02
  -2.700  0.0000E+00  0.5600E+02
  -2.650  0.0000E+00  0.5600E+02
  -2.600  0.0000E+00  0.5600E+02
  -2.550  0.0000E+00  0.5600E+02
  -2.500  0.0000E+00  0.5600E+02
  -2.450  0.0000E+00  0.5600E+02
  -2.400  0.0000E+00  0.5600E+02
  -2.350  0.0000E+00  0.5600E+02
  -2.300  0.0000E+00  0.5600E+02
  -2.250  0.0000E+00  0.5600E+02
  -2.200  0.0000E+00  0.5600E+02
  -2.150  0.0000E+00  0.5600E+02
  -2.100  0.0000E+00  0.5600E+02
  -2.050  0.0000E+00  0.5600E+02
  -2.000  0.0000E+00  0.5600E+02
  -1.950  0.0000E+00  0.5600E+02
  -1.900  0.0000E+00  0.5600E+02
  -1.850  0.0000E+00  0.5600E+02
  -1.800  0.0000E+00  0.5600E+02
  -1.750  0.0000E+00  0.5600E+02
  -1.700  0.0000E+00  0.5600E+02
  -1.650  0.0000E+00  0.5600E+02
  -1.600  0.0000E+00  0.5600E+02
  -1.550  0.0000E+00  0.5600E+02
  -1.500  0.0000E+00  0.5600E+02
  -1.450  0.0000E+00  0.5600E+02
  -1.400  0.0000E+00  0.5600E+02
  -1.350  0.0000E+00  0.5600E+02
  -1.300  0.0000E+00  0.5600E+02
  -1.250  0.0000E+00  0.5600E+02
  -1.200  0.0000E+00  0.5600E+02
  -1.150  0.0000E+00  0.5600E+02
  -1.100  0.0000E+00  0.5600E+02
  -1.050  0.0000E+00  0.5600E+02
  -1.000  0.0000E+00  0.5600E+02
  -0.950  0.0000E+00  0.5600E+02
  -0.900  0.0000E+00  0.5600E+02
  -0.850  0.0000E+00  0.5600E+02
  -0.800  0.0000E+00  0.5600E+02
  -0.750  0.0000E+00  0.5600E+02
  -0.700  0.0000E+00  0.5600E+02
  -0.650  0.0000E+00  0.5600E+02
  -0.600  0.0000E+00  0.5600E+02
  -0.550  0.0000E+00  0.5600E+02
  -0.500  0.0000E+00  0.5600E+02
  -0.450  0.0000E+00  0.5600E+02
  -0.400  0.0000E+00  0.5600E+02
  -0.350  0.0000E+00  0.5600E+02
  -0.300  0.0000E+00  0.5600E+02
  -0.250  0.0000E+00  0.5600E+02
  -0.200  0.0000E+00  0.5600E+02
  -0.150  0.0000E+00  0.5600E+02
  -0.100  0.0000E+00  0.5600E+02
  -0.050  0.0000E+00  0.5600E+02
   0.000  0.0000E+00  0.5600E+02
   0.050  0.0000E+00  0.5600E+02
   0.100  0.0000E+00  0.5600E+02
   0.150  0.0000E+00  0.5600E+02
   0.200  0.0000E+00  0.5600E+02
   0.250  0.0000E+00  0.5600E+02
   0.300  0.0000E+00  0.5600E+02
   0.350  0.0000E+00  0.5600E+02
   0.400  0.0000E+00  0.5600E+02
   0.450  0.0000E+00  0.5600E+02
   0.500  0.0000E+00  0.5600E+02
   0.550  0.0000E+00  0.5600E+02
   0.600  0.0000E+00  0.5600E+02
   0.650  0.0000E+00  0.5600E+02
   0.700  0.0000E+00  0.5600E+02
   0.750  0.0000E+00  0.5600E+02
   0.800  0.0000E+00  0.5600E+02
   0.850  0.0000E+00  0.5600E+02
   0.900  0.0000E+00  0.5600E+02
   0.950  0.0000E+00  0.5600E+02
   1.000  0.0000E+00  0.5600E+02
   1.050  0.0000E+00  0.5600E+02
   1.100  0.0000E+00  0.5600E+02
   1.150  0.0000E+00  0.5600E+02
   1.200  0.0000E+00  0.5600E+02
   1.250  0.0000E+00  0.5600E+02
   1.300  0.0000E+00  0.5600E+02
   1.350  0.0000E+00  0.5600E+02
   1.400  0.0000E+00  0.5600E+02
   1.450  0.0000E+00  0.5600E+02
   1.500  0.0000E+00  0.5600E+02
   1.550  0.0000E+00  0.5600E+02
   1.600  0.0000E+00  0.5600E+02
   1.650  0.0000E+00  0.5600E+02
   1.700  0.0000E+00  0.5600E+02
   1.750  0.0000E+00  0.5600E+02
   1.800  0.0000E+00  0.5600E+02
   1.850  0.0000E+00  0.5600E+02
   1.900  0.0000E+00  0.5600E+02
   1.950  0.0000E+00  0.5600E+02
   2.000  0.0000E+00  0.5600E+02
   2.050  0.0000E+00  0.5600E+02
   2.100  0.0000E+00  0.5600E+02
   2.150  0.0000E+00  0.5600E+02
   2.200  0.0000E+00  0.5600E+02
   2.250  0.0000E+00  0.5600E+02
   2.300  0.0000E+00  0.5600E+02
   2.350  0.0000E+00  0.5600E+02
   2.400  0.0000E+00  0.5600E+02
   2.450  0.0000E+00  0.5600E+02
   2.500  0.0000E+00  0.5600E+02
   2.550  0.0000E+00  0.5600E+02
   2.600  0.0000E+00  0.5600E+02
   2.650  0.0000E+00  0.5600E+02
   2.700  0.0000E+00  0.5600E+02
   2.750  0.0000E+00  0.5600E+02
   2.800  0.0000E+00  0.5600E+02
   2.850  0.0000E+00  0.5600E+02
   2.900  0.0000E+00  0.5600E+02
   2.950  0.0000E+00  0.5600E+02
   3.000  0.0000E+00  0.5600E+02
   3.050  0.0000E+00  0.5600E+02
   3.100  0.0000E+00  0.5600E+02
   3.150  0.0000E+00  0.5600E+02
   3.200  0.0000E+00  0.5600E+02
   3.250  0.0000E+00  0.5600E+02
   3.300  0.0000E+00  0.5600E+02
   3.350  0.0000E+00  0.5600E+02
   3.400  0.0000E+00  0.5600E+02
   3.450  0.0000E+00  0.5600E+02
   3.500  0.0000E+00  0.5600E+02
   3.550  0.0000E+00  0.5600E+02
   3.600  0.0000E+00  0.5600E+02
   3.650  0.0000E+00  0.5600E+02
   3.700  0.0000E+00  0.5600E+02
   3.750  0.0000E+00  0.5600E+02
   3.800  0.0000E+00  0.5600E+02
   3.850  0.0000E+00  0.5600E+02
   3.900  0.0000E+00  0.5600E+02
   3.950  0.0000E+00  0.5600E+02
   4.000  0.0000E+00  0.5600E+02
   4.050  0.0000E+00  0.5600E+02
   4.100  0.0000E+00  0.5600E+02
   4.150  0.0000E+00  0.5600E+02
   4.200  0.0000E+00  0.5600E+02
   4.250  0.0000E+00  0.5600E+02
   4.300  0.0000E+00  0.5600E+02
   4.350  0.0000E+00  0.5600E+02
   4.400  0.0000E+00  0.5600E+02
   4.450  0.0000E+00  0.5600E+02
   4.500  0.0000E+00  0.5600E+02
   4.550  0.0000E+00  0.5600E+02
   4.600  0.0000E+00  0.5600E+02
   4.650  0.0000E+00  0.5600E+02
   4.700  0.0000E+00  0.5600E+02
   4.750  0.0000E+00  0.5600E+02
   4.800  0.0000E+00  0.5600E+02
   4.850  0.0000E+00  0.5600E+02
   4.900  0.0000E+00  0.5600E+02
   4.950  0.0000E+00  0.5600E+02
   5.000  0.0000E+00  0.5600E+02
   5.050  0.0000E+00  0.5600E+02
   5.100  0.0000E+00  0.5600E+02
   5.150  0.0000E+00  0.5600E+02
   5.200  0.0000E+00  0.5600E+02
   5.250  0.0000E+00  0.5600E+02
   5.300  0.0000E+00  0.5600E+02
   5.350  0.0000E+00  0.5600E+02
   5.400  0.0000E+00  0.5600E+02
   5.450  0.0000E+00  0.5600E+02
   5.500  0.0000E+00  0.5600E+02
   5.550  0.0000E+00  0.5600E+02
   5.600  0.0000E+00  0.5600E+02
   5.650  0.0000E+00  0.5600E+02
   5.700  0.0000E+00  0.5600E+02
   5.750  0.0000E+00  0.5600E+02
   5.800  0.0000E+00  0.5600E+02
   5.850  0.0000E+00  0.5600E+02
   5.900  0.0000E+00  0.5600E+02
   5.950  0.0000E+00  0.5600E+02
   6.000  0.0000E+00  0.5600E+02
   6.050  0.0000E+00  0.5600E+02
   6.100  0.0000E+00  0.5600E+02
   6.150  0.0000E+00  0.5600E+02
   6.200  0.0000E+00  0.5600E+02
   6.250  0.0000E+00  0.5600E+02
   6.300  0.0000E+00  0.5600E+02
   6.350  0.0000E+00  0.5600E+02
   6.400  0.0000E+00  0.5600E+02
   6.450  0.0000E+00  0.5600E+02
   6.500  0.0000E+00  0.5600E+02
   6.550  0.0000E+00  0.5600E+02
   6.600  0.0000E+00  0.5600E+02
   6.650  0.0000E+00  0.5600E+02
   6.700  0.0000E+00  0.5600E+02
   6.750  0.0000E+00  0.5600E+02
   6.800  0.0000E+00  0.5600E+02
   6.850  0.0000E+00  0.5600E+02
   6.900  0.0000E+00  0.5600E+02
   6.950  0.0000E+00  0.5600E+02
   7.000  0.0000E+00  0.5600E+02
   7.050  0.0000E+00  0.5600E+02
   7.100  0.0000E+00  0.5600E+02
   7.150  0.0000E+00  0.5600E+02
   7.200  0.0000E+00  0.5600E+02
   7.250  0.2619E-01  0.5600E+02
   7.300  0.1596E+00  0.5600E+02
   7.350  0.2935E+00  0.5602E+02
   7.400  0.5143E+00  0.5604E+02
   7.450  0.7811E+00  0.5607E+02
   7.500  0.8402E+00  0.5611E+02
   7.550  0.1055E+01  0.5615E+02
   7.600  0.7820E+00  0.5619E+02
   7.650  0.8254E+00  0.5623E+02
   7.700  0.8688E+00  0.5628E+02
   7.750  0.9122E+00  0.5632E+02
   7.800  0.9600E+00  0.5637E+02
   7.850  0.1023E+01  0.5642E+02
   7.900  0.1086E+01  0.5647E+02
   7.950  0.1168E+01  0.5653E+02
   8.000  0.1251E+01  0.5659E+02
   8.050  0.1335E+01  0.5665E+02
   8.100  0.1429E+01  0.5672E+02
   8.150  0.1536E+01  0.5679E+02
   8.200  0.2627E+01  0.5688E+02
   8.250  0.6681E+01  0.5720E+02
   8.300  0.5167E+01  0.5749E+02
   8.350  0.3366E+01  0.5769E+02
   8.400  0.3292E+01  0.5785E+02
   8.450  0.3220E+01  0.5802E+02
   8.500  0.3829E+01  0.5819E+02
   8.550  0.4278E+01  0.5847E+02
   8.600  0.3468E+01  0.5865E+02
   8.650  0.3295E+01  0.5882E+02
   8.700  0.3946E+01  0.5899E+02
   8.750  0.5119E+01  0.5925E+02
   8.800  0.4352E+01  0.5947E+02
   8.850  0.5810E+01  0.5972E+02
   8.900  0.1859E+02  0.6030E+02
   8.950  0.8794E+01  0.6098E+02
   9.000  0.7422E+01  0.6133E+02
   9.050  0.1043E+02  0.6177E+02
   9.100  0.1016E+02  0.6230E+02
   9.150  0.1811E+02  0.6296E+02
   9.200  0.7325E+01  0.6349E+02
   9.250  0.2684E+01  0.6381E+02
   9.300  0.5959E+01  0.6405E+02
   9.350  0.1483E+02  0.6451E+02
   9.400  0.9526E+01  0.6515E+02
   9.450  0.6364E+01  0.6555E+02
   9.500  0.5073E+01  0.6580E+02
   9.550  0.4378E+00  0.6587E+02
   9.600  0.4240E+00  0.6589E+02
   9.650  0.1704E+02  0.6649E+02
   9.700  0.4203E+01  0.6692E+02
   9.750  0.3329E+01  0.6711E+02
   9.800  0.4109E+01  0.6732E+02
   9.850  0.7323E+01  0.6757E+02
   9.900  0.9606E+01  0.6802E+02
   9.950  0.1060E+02  0.6859E+02
  10.000  0.6231E+01  0.6902E+02
  10.050  0.5150E+01  0.6932E+02
  10.100  0.4658E+01  0.6955E+02
  10.150  0.5090E+01  0.6980E+02
  10.200  0.5279E+01  0.7006E+02
  10.250  0.5162E+01  0.7033E+02
  10.300  0.5688E+01  0.7060E+02
  10.350  0.5455E+01  0.7088E+02
  10.400  0.4956E+01  0.7114E+02
  10.450  0.2847E+01  0.7136E+02
  10.500  0.2129E+01  0.7148E+02
  10.550  0.6872E+01  0.7174E+02
  10.600  0.5496E+01  0.7205E+02
  10.650  0.4815E+01  0.7230E+02
  10.700  0.9407E+01  0.7257E+02
  10.750  0.5917E+01  0.7300E+02
  10.800  0.4665E+01  0.7324E+02
  10.850  0.4851E+01  0.7348E+02
  10.900  0.4968E+01  0.7372E+02
  10.950  0.5676E+01  0.7399E+02
  11.000  0.9026E+01  0.7427E+02
  11.050  0.6797E+01  0.7486E+02
  11.100  0.3721E+01  0.7510E+02
  11.150  0.3590E+01  0.7529E+02
  11.200  0.2727E+01  0.7544E+02
  11.250  0.2452E+01  0.7557E+02
  11.300  0.2195E+01  0.7569E+02
  11.350  0.2036E+01  0.7579E+02
  11.400  0.1378E+01  0.7592E+02
  11.450  0.6138E+00  0.7596E+02
  11.500  0.3908E+00  0.7598E+02
  11.550  0.1702E+00  0.7600E+02
  11.600  0.3922E-04  0.7600E+02
  11.650  0.0000E+00  0.7600E+02
  11.700  0.0000E+00  0.7600E+02
  11.750  0.0000E+00  0.7600E+02
  11.800  0.1476E+01  0.7602E+02
  11.850  0.1057E+01  0.7609E+02
  11.900  0.1338E+01  0.7615E+02
  11.950  0.1571E+01  0.7622E+02
  12.000  0.1922E+01  0.7631E+02
  12.050  0.2528E+01  0.7642E+02
  12.100  0.2937E+01  0.7656E+02
  12.150  0.3432E+01  0.7672E+02
  12.200  0.4330E+01  0.7691E+02
  12.250  0.5351E+01  0.7715E+02
  12.300  0.5917E+01  0.7744E+02
  12.350  0.7631E+01  0.7776E+02
  12.400  0.1238E+02  0.7832E+02
  12.450  0.8173E+01  0.7875E+02
  12.500  0.8489E+01  0.7917E+02
  12.550  0.1045E+02  0.7965E+02
  12.600  0.6735E+01  0.8005E+02
  12.650  0.7986E+01  0.8042E+02
  12.700  0.6886E+01  0.8088E+02
  12.750  0.4650E+01  0.8114E+02
  12.800  0.4251E+01  0.8136E+02
  12.850  0.3901E+01  0.8157E+02
  12.900  0.2712E+01  0.8173E+02
  12.950  0.1342E+01  0.8185E+02
  13.000  0.1147E+01  0.8191E+02
  13.050  0.9919E+00  0.8196E+02
  13.100  0.3066E+00  0.8202E+02
  13.150  0.2884E+01  0.8207E+02
  13.200  0.2541E+01  0.8223E+02
  13.250  0.1993E+01  0.8234E+02
  13.300  0.5399E+01  0.8257E+02
  13.350  0.5173E+01  0.8285E+02
  13.400  0.5535E+01  0.8311E+02
  13.450  0.7221E+01  0.8342E+02
  13.500  0.7926E+01  0.8380E+02
  13.550  0.9621E+01  0.8424E+02
  13.600  0.1544E+02  0.8486E+02
  13.650  0.5780E+01  0.8549E+02
  13.700  0.9740E+01  0.8585E+02
  13.750  0.6745E+01  0.8632E+02
  13.800  0.9392E+01  0.8666E+02
  13.850  0.4792E+01  0.8708E+02
  13.900  0.4473E+01  0.8731E+02
  13.950  0.4638E+01  0.8754E+02
  14.000  0.2332E+01  0.8771E+02
  14.050  0.1680E+01  0.8781E+02
  14.100  0.1309E+01  0.8788E+02
  14.150  0.9373E+00  0.8794E+02
  14.200  0.2971E+01  0.8798E+02
  14.250  0.0000E+00  0.8800E+02
  14.300  0.0000E+00  0.8800E+02
  14.350  0.0000E+00  0.8800E+02
  14.400  0.0000E+00  0.8800E+02
  14.450  0.8247E-03  0.8800E+02
  14.500  0.1066E+00  0.8800E+02
  14.550  0.3897E+00  0.8801E+02
  14.600  0.8502E+00  0.8804E+02
  14.650  0.1488E+01  0.8810E+02
  14.700  0.2834E+01  0.8820E+02
  14.750  0.2848E+01  0.8834E+02
  14.800  0.3734E+01  0.8850E+02
  14.850  0.8208E+01  0.8876E+02
  14.900  0.5511E+01  0.8910E+02
  14.950  0.1425E+02  0.8952E+02
  15.000  0.3872E+01  0.8989E+02
  15.050  0.3476E+01  0.9007E+02
  15.100  0.3118E+01  0.9024E+02
  15.150  0.2888E+01  0.9039E+02
  15.200  0.2702E+01  0.9053E+02
  15.250  0.2886E+01  0.9067E+02
  15.300  0.3322E+01  0.9082E+02
  15.350  0.4759E+01  0.9101E+02
  15.400  0.5139E+01  0.9128E+02
  15.450  0.1437E+01  0.9144E+02
  15.500  0.1061E+01  0.9149E+02
  15.550  0.1628E+01  0.9156E+02
  15.600  0.2434E+01  0.9165E+02
  15.650  0.3868E+01  0.9181E+02
  15.700  0.1048E+01  0.9198E+02
  15.750  0.1248E+00  0.9200E+02
  15.800  0.3756E-01  0.9200E+02
  15.850  0.1179E-02  0.9200E+02
  15.900  0.0000E+00  0.9200E+02
  15.950  0.1003E+01  0.9203E+02
  16.000  0.3473E+01  0.9212E+02
  16.050  0.1680E+02  0.9293E+02
  16.100  0.7358E+01  0.9348E+02
  16.150  0.2915E+02  0.9407E+02
  16.200  0.1398E+02  0.9502E+02
  16.250  0.1333E+02  0.9579E+02
  16.300  0.1110E+02  0.9641E+02
  16.350  0.7627E+01  0.9682E+02
  16.400  0.7556E+01  0.9720E+02
  16.450  0.1031E+02  0.9765E+02
  16.500  0.1465E+02  0.9826E+02
  16.550  0.1711E+02  0.9909E+02
  16.600  0.5785E+01  0.9961E+02
  16.650  0.1861E+02  0.1003E+03
  16.700  0.1813E+02  0.1013E+03
  16.750  0.1347E+02  0.1020E+03
  16.800  0.1814E+02  0.1029E+03
  16.850  0.9641E+01  0.1036E+03
  16.900  0.4712E+01  0.1039E+03
  16.950  0.4265E+01  0.1041E+03
  17.000  0.4057E+01  0.1043E+03
  17.050  0.3907E+01  0.1045E+03
  17.100  0.3848E+01  0.1047E+03
  17.150  0.4329E+01  0.1049E+03
  17.200  0.4466E+01  0.1051E+03
  17.250  0.4452E+01  0.1053E+03
  17.300  0.4099E+01  0.1056E+03
  17.350  0.3674E+01  0.1058E+03
  17.400  0.3438E+01  0.1059E+03
  17.450  0.3346E+01  0.1061E+03
  17.500  0.3255E+01  0.1063E+03
  17.550  0.3249E+01  0.1064E+03
  17.600  0.3193E+01  0.1066E+03
  17.650  0.3138E+01  0.1067E+03
  17.700  0.2924E+01  0.1069E+03
  17.750  0.2418E+01  0.1070E+03
  17.800  0.2265E+01  0.1072E+03
  17.850  0.5537E+01  0.1073E+03
  17.900  0.1839E+02  0.1080E+03
  17.950  0.5011E+01  0.1083E+03
  18.000  0.5575E+01  0.1086E+03
  18.050  0.1241E+02  0.1089E+03
  18.100  0.9678E+01  0.1095E+03
  18.150  0.1008E+02  0.1100E+03
  18.200  0.8282E+01  0.1105E+03
  18.250  0.6382E+01  0.1109E+03
  18.300  0.5070E+01  0.1111E+03
  18.350  0.4296E+01  0.1114E+03
  18.400  0.2510E+01  0.1115E+03
  18.450  0.2390E+01  0.1117E+03
  18.500  0.2534E+01  0.1118E+03
  18.550  0.2087E+01  0.1119E+03
  18.600  0.2000E+01  0.1120E+03
  18.650  0.5059E+00  0.1121E+03
  18.700  0.5511E+00  0.1121E+03
  18.750  0.5963E+00  0.1121E+03
  18.800  0.6415E+00  0.1122E+03
  18.850  0.6856E+00  0.1122E+03
  18.900  0.8210E+00  0.1122E+03
  18.950  0.1165E+01  0.1123E+03
  19.000  0.1294E+01  0.1123E+03
  19.050  0.1423E+01  0.1124E+03
  19.100  0.1552E+01  0.1125E+03
  19.150  0.1680E+01  0.1126E+03
  19.200  0.1800E+01  0.1127E+03
  19.250  0.1836E+01  0.1127E+03
  19.300  0.1918E+01  0.1128E+03
  19.350  0.2006E+01  0.1129E+03
  19.400  0.2094E+01  0.1130E+03
  19.450  0.2181E+01  0.1131E+03
  19.500  0.2269E+01  0.1133E+03
  19.550  0.2290E+01  0.1134E+03
  19.600  0.2823E+01  0.1135E+03
  19.650  0.2941E+01  0.1136E+03
  19.700  0.2852E+01  0.1138E+03
  19.750  0.2764E+01  0.1139E+03
  19.800  0.2719E+01  0.1141E+03
  19.850  0.2969E+01  0.1142E+03
  19.900  0.3066E+01  0.1144E+03
  19.950  0.2911E+01  0.1145E+03
  20.000  0.2855E+01  0.1147E+03
  20.050  0.2812E+01  0.1148E+03
  20.100  0.2201E+01  0.1149E+03
  20.150  0.2159E+01  0.1150E+03
  20.200  0.2195E+01  0.1151E+03
  20.250  0.2236E+01  0.1153E+03
  20.300  0.2280E+01  0.1154E+03
  20.350  0.1869E+01  0.1155E+03
  20.400  0.2043E+01  0.1156E+03
  20.450  0.1705E+01  0.1157E+03
  20.500  0.1182E+01  0.1157E+03
  20.550  0.8118E+00  0.1158E+03
  20.600  0.7490E+00  0.1158E+03
  20.650  0.8217E+00  0.1159E+03
  20.700  0.1033E+01  0.1159E+03
  20.750  0.1246E+01  0.1160E+03
  20.800  0.9516E+00  0.1161E+03
  20.850  0.9934E+00  0.1161E+03
  20.900  0.8575E+00  0.1162E+03
  20.950  0.4180E+01  0.1163E+03
  21.000  0.1271E+01  0.1164E+03
  21.050  0.1410E+01  0.1165E+03
  21.100  0.1549E+01  0.1165E+03
  21.150  0.2262E+01  0.1167E+03
  21.200  0.2664E+01  0.1168E+03
  21.250  0.3118E+01  0.1169E+03
  21.300  0.4120E+01  0.1171E+03
  21.350  0.4754E+01  0.1174E+03
  21.400  0.5104E+01  0.1176E+03
  21.450  0.5831E+01  0.1179E+03
  21.500  0.5889E+01  0.1182E+03
  21.550  0.6914E+01  0.1185E+03
  21.600  0.9203E+01  0.1189E+03
  21.650  0.5321E+01  0.1193E+03
  21.700  0.7213E+01  0.1196E+03
  21.750  0.7931E+01  0.1200E+03
  21.800  0.8289E+01  0.1204E+03
  21.850  0.6489E+01  0.1207E+03
  21.900  0.7474E+01  0.1211E+03
  21.950  0.6715E+01  0.1213E+03
  22.000  0.6312E+01  0.1217E+03
  22.050  0.5162E+01  0.1220E+03
  22.100  0.5835E+01  0.1222E+03
  22.150  0.5174E+01  0.1225E+03
  22.200  0.5196E+01  0.1228E+03
  22.250  0.8181E+01  0.1230E+03
  22.300  0.4094E+01  0.1232E+03
  22.350  0.3599E+01  0.1234E+03
  22.400  0.3603E+01  0.1236E+03
  22.450  0.4884E+01  0.1238E+03
  22.500  0.4462E+01  0.1241E+03
  22.550  0.4885E+01  0.1243E+03
  22.600  0.6585E+01  0.1246E+03
  22.650  0.7135E+01  0.1250E+03
  22.700  0.8449E+01  0.1254E+03
  22.750  0.9462E+01  0.1258E+03
  22.800  0.1038E+02  0.1263E+03
  22.850  0.1011E+02  0.1268E+03
  22.900  0.1135E+02  0.1273E+03
  22.950  0.1056E+02  0.1279E+03
  23.000  0.1020E+02  0.1284E+03
  23.050  0.1051E+02  0.1289E+03
  23.100  0.1045E+02  0.1295E+03
  23.150  0.9779E+01  0.1300E+03
  23.200  0.8642E+01  0.1304E+03
  23.250  0.8338E+01  0.1308E+03
  23.300  0.9824E+01  0.1313E+03
  23.350  0.9381E+01  0.1318E+03
  23.400  0.8562E+01  0.1322E+03
  23.450  0.8947E+01  0.1327E+03
  23.500  0.8220E+01  0.1331E+03
  23.550  0.7807E+01  0.1335E+03
  23.600  0.6145E+01  0.1338E+03
  23.650  0.5582E+01  0.1341E+03
  23.700  0.5173E+01  0.1344E+03
  23.750  0.4860E+01  0.1347E+03
  23.800  0.4818E+01  0.1349E+03
  23.850  0.4944E+01  0.1351E+03
  23.900  0.1248E+02  0.1356E+03
  23.950  0.1137E+02  0.1362E+03
  24.000  0.6762E+01  0.1366E+03
  24.050  0.3806E+01  0.1369E+03
  24.100  0.4009E+01  0.1371E+03
  24.150  0.6317E+01  0.1373E+03
  24.200  0.6761E+01  0.1378E+03
  24.250  0.5570E+01  0.1380E+03
  24.300  0.4813E+01  0.1383E+03
  24.350  0.7186E+01  0.1385E+03
  24.400  0.6358E+01  0.1388E+03
  24.450  0.9004E+01  0.1392E+03
  24.500  0.7977E+01  0.1396E+03
  24.550  0.3853E+01  0.1399E+03
  24.600  0.0000E+00  0.1400E+03
  24.650  0.0000E+00  0.1400E+03
  24.700  0.0000E+00  0.1400E+03
  24.750  0.0000E+00  0.1400E+03
  24.800  0.0000E+00  0.1400E+03
  24.850  0.0000E+00  0.1400E+03
  24.900  0.0000E+00  0.1400E+03
  24.950  0.0000E+00  0.1400E+03
  25.000  0.0000E+00  0.1400E+03
  25.050  0.0000E+00  0.1400E+03
  25.100  0.0000E+00  0.1400E+03
  25.150  0.0000E+00  0.1400E+03
  25.200  0.0000E+00  0.1400E+03
  25.250  0.0000E+00  0.1400E+03
  25.300  0.0000E+00  0.1400E+03
  25.350  0.0000E+00  0.1400E+03
  25.400  0.0000E+00  0.1400E+03
  25.450  0.0000E+00  0.1400E+03
  25.500  0.0000E+00  0.1400E+03
  25.550  0.0000E+00  0.1400E+03
  25.600  0.0000E+00  0.1400E+03
  25.650  0.0000E+00  0.1400E+03
  25.700  0.0000E+00  0.1400E+03
  25.750  0.0000E+00  0.1400E+03
  25.800  0.0000E+00  0.1400E+03
  25.850  0.0000E+00  0.1400E+03
  25.900  0.0000E+00  0.1400E+03
  25.950  0.0000E+00  0.1400E+03
  26.000  0.0000E+00  0.1400E+03
  26.050  0.0000E+00  0.1400E+03
  26.100  0.0000E+00  0.1400E+03
  26.150  0.0000E+00  0.1400E+03
  26.200  0.0000E+00  0.1400E+03
  26.250  0.0000E+00  0.1400E+03
  26.300  0.0000E+00  0.1400E+03
  26.350  0.0000E+00  0.1400E+03
  26.400  0.0000E+00  0.1400E+03
  26.450  0.0000E+00  0.1400E+03
  26.500  0.0000E+00  0.1400E+03
  26.550  0.0000E+00  0.1400E+03
  26.600  0.0000E+00  0.1400E+03
  26.650  0.0000E+00  0.1400E+03
  26.700  0.0000E+00  0.1400E+03
  26.750  0.0000E+00  0.1400E+03
  26.800  0.0000E+00  0.1400E+03
  26.850  0.0000E+00  0.1400E+03
  26.900  0.0000E+00  0.1400E+03
  26.950  0.0000E+00  0.1400E+03
  27.000  0.0000E+00  0.1400E+03
  27.050  0.0000E+00  0.1400E+03
  27.100  0.0000E+00  0.1400E+03
  27.150  0.0000E+00  0.1400E+03
  27.200  0.0000E+00  0.1400E+03
  27.250  0.0000E+00  0.1400E+03
  27.300  0.0000E+00  0.1400E+03
  27.350  0.0000E+00  0.1400E+03
  27.400  0.0000E+00  0.1400E+03
  27.450  0.0000E+00  0.1400E+03
  27.500  0.0000E+00  0.1400E+03
  27.550  0.0000E+00  0.1400E+03
  27.600  0.0000E+00  0.1400E+03
  27.650  0.0000E+00  0.1400E+03
  27.700  0.0000E+00  0.1400E+03
  27.750  0.0000E+00  0.1400E+03
  27.800  0.0000E+00  0.1400E+03
  27.850  0.0000E+00  0.1400E+03
  27.900  0.0000E+00  0.1400E+03
  27.950  0.0000E+00  0.1400E+03
  28.000  0.0000E+00  0.1400E+03
  28.050  0.0000E+00  0.1400E+03
  28.100  0.0000E+00  0.1400E+03
  28.150  0.0000E+00  0.1400E+03
  28.200  0.0000E+00  0.1400E+03
  28.250  0.0000E+00  0.1400E+03
  28.300  0.0000E+00  0.1400E+03
  28.350  0.0000E+00  0.1400E+03
  28.400  0.0000E+00  0.1400E+03
  28.450  0.0000E+00  0.1400E+03
  28.500  0.0000E+00  0.1400E+03
  28.550  0.0000E+00  0.1400E+03
  28.600  0.0000E+00  0.1400E+03
  28.650  0.0000E+00  0.1400E+03
  28.700  0.0000E+00  0.1400E+03
  28.750  0.0000E+00  0.1400E+03
  28.800  0.0000E+00  0.1400E+03
  28.850  0.0000E+00  0.1400E+03
  28.900  0.0000E+00  0.1400E+03
  28.950  0.0000E+00  0.1400E+03
  29.000  0.0000E+00  0.1400E+03
  29.050  0.0000E+00  0.1400E+03
  29.100  0.0000E+00  0.1400E+03
  29.150  0.0000E+00  0.1400E+03
  29.200  0.0000E+00  0.1400E+03
  29.250  0.0000E+00  0.1400E+03
  29.300  0.0000E+00  0.1400E+03
  29.350  0.0000E+00  0.1400E+03
  29.400  0.0000E+00  0.1400E+03
  29.450  0.0000E+00  0.1400E+03
  29.500  0.0000E+00  0.1400E+03
  29.550  0.0000E+00  0.1400E+03
  29.600  0.0000E+00  0.1400E+03
  29.650  0.0000E+00  0.1400E+03
  29.700  0.0000E+00  0.1400E+03
  29.750  0.0000E+00  0.1400E+03
  29.800  0.0000E+00  0.1400E+03
  29.850  0.0000E+00  0.1400E+03
  29.900  0.0000E+00  0.1400E+03
  29.950  0.0000E+00  0.1400E+03
  30.000  0.0000E+00  0.1400E+03
  30.050  0.0000E+00  0.1400E+03
  30.100  0.0000E+00  0.1400E+03
  30.150  0.0000E+00  0.1400E+03
  30.200  0.0000E+00  0.1400E+03
  30.250  0.0000E+00  0.1400E+03
  30.300  0.0000E+00  0.1400E+03
  30.350  0.0000E+00  0.1400E+03
  30.400  0.0000E+00  0.1400E+03
  30.450  0.0000E+00  0.1400E+03
  30.500  0.0000E+00  0.1400E+03
  30.550  0.0000E+00  0.1400E+03
  30.600  0.0000E+00  0.1400E+03
  30.650  0.0000E+00  0.1400E+03
  30.700  0.0000E+00  0.1400E+03
  30.750  0.0000E+00  0.1400E+03
  30.800  0.0000E+00  0.1400E+03
  30.850  0.0000E+00  0.1400E+03
  30.900  0.0000E+00  0.1400E+03
  30.950  0.0000E+00  0.1400E+03
  31.000  0.0000E+00  0.1400E+03
  31.050  0.0000E+00  0.1400E+03
  31.100  0.0000E+00  0.1400E+03
  31.150  0.0000E+00  0.1400E+03
  31.200  0.0000E+00  0.1400E+03
  31.250  0.0000E+00  0.1400E+03
  31.300  0.0000E+00  0.1400E+03
  31.350  0.0000E+00  0.1400E+03
  31.400  0.0000E+00  0.1400E+03
  31.450  0.0000E+00  0.1400E+03
  31.500  0.0000E+00  0.1400E+03
  31.550  0.0000E+00  0.1400E+03
  31.600  0.0000E+00  0.1400E+03
  31.650  0.0000E+00  0.1400E+03
  31.700  0.0000E+00  0.1400E+03
  31.750  0.0000E+00  0.1400E+03
  31.800  0.0000E+00  0.1400E+03
  31.850  0.0000E+00  0.1400E+03
  31.900  0.0000E+00  0.1400E+03
  31.950  0.0000E+00  0.1400E+03
  32.000  0.0000E+00  0.1400E+03
  32.050  0.0000E+00  0.1400E+03
  32.100  0.0000E+00  0.1400E+03
  32.150  0.0000E+00  0.1400E+03
  32.200  0.0000E+00  0.1400E+03
  32.250  0.0000E+00  0.1400E+03
  32.300  0.0000E+00  0.1400E+03
  32.350  0.0000E+00  0.1400E+03
  32.400  0.0000E+00  0.1400E+03
  32.450  0.0000E+00  0.1400E+03
  32.500  0.0000E+00  0.1400E+03
  32.550  0.0000E+00  0.1400E+03
  32.600  0.0000E+00  0.1400E+03
  32.650  0.0000E+00  0.1400E+03
  32.700  0.0000E+00  0.1400E+03
  32.750  0.0000E+00  0.1400E+03
  32.800  0.0000E+00  0.1400E+03
  32.850  0.0000E+00  0.1400E+03
  32.900  0.0000E+00  0.1400E+03
  32.950  0.0000E+00  0.1400E+03
  33.000  0.0000E+00  0.1400E+03
  33.050  0.0000E+00  0.1400E+03
  33.100  0.0000E+00  0.1400E+03
  33.150  0.0000E+00  0.1400E+03
  33.200  0.0000E+00  0.1400E+03
  33.250  0.0000E+00  0.1400E+03
  33.300  0.0000E+00  0.1400E+03
  33.350  0.0000E+00  0.1400E+03
  33.400  0.0000E+00  0.1400E+03
  33.450  0.0000E+00  0.1400E+03
  33.500  0.0000E+00  0.1400E+03
  33.550  0.0000E+00  0.1400E+03
  33.600  0.0000E+00  0.1400E+03
  33.650  0.0000E+00  0.1400E+03
  33.700  0.0000E+00  0.1400E+03
  33.750  0.0000E+00  0.1400E+03
  33.800  0.0000E+00  0.1400E+03
  33.850  0.0000E+00  0.1400E+03
  33.900  0.0000E+00  0.1400E+03
  33.950  0.0000E+00  0.1400E+03
  34.000  0.0000E+00  0.1400E+03
  34.050  0.0000E+00  0.1400E+03
  34.100  0.0000E+00  0.1400E+03
  34.150  0.0000E+00  0.1400E+03
  34.200  0.0000E+00  0.1400E+03
  34.250  0.0000E+00  0.1400E+03
  34.300  0.0000E+00  0.1400E+03
  34.350  0.0000E+00  0.1400E+03
  34.400  0.0000E+00  0.1400E+03
  34.450  0.0000E+00  0.1400E+03
  34.500  0.0000E+00  0.1400E+03
  34.550  0.0000E+00  0.1400E+03
  34.600  0.0000E+00  0.1400E+03
  34.650  0.0000E+00  0.1400E+03
  34.700  0.0000E+00  0.1400E+03
  34.750  0.0000E+00  0.1400E+03
  34.800  0.0000E+00  0.1400E+03
  34.850  0.0000E+00  0.1400E+03
  34.900  0.0000E+00  0.1400E+03
  34.950  0.0000E+00  0.1400E+03
  35.000  0.0000E+00  0.1400E+03
  35.050  0.0000E+00  0.1400E+03
  35.100  0.0000E+00  0.1400E+03
  35.150  0.0000E+00  0.1400E+03
  35.200  0.0000E+00  0.1400E+03
  35.250  0.0000E+00  0.1400E+03
  35.300  0.0000E+00  0.1400E+03
  35.350  0.0000E+00  0.1400E+03
  35.400  0.0000E+00  0.1400E+03
  35.450  0.0000E+00  0.1400E+03
  35.500  0.0000E+00  0.1400E+03
  35.550  0.0000E+00  0.1400E+03
  35.600  0.0000E+00  0.1400E+03
  35.650  0.0000E+00  0.1400E+03
  35.700  0.0000E+00  0.1400E+03
  35.750  0.0000E+00  0.1400E+03
  35.800  0.0000E+00  0.1400E+03
  35.850  0.0000E+00  0.1400E+03
  35.900  0.0000E+00  0.1400E+03
  35.950  0.0000E+00  0.1400E+03
  36.000  0.0000E+00  0.1400E+03
  36.050  0.0000E+00  0.1400E+03
  36.100  0.0000E+00  0.1400E+03
  36.150  0.0000E+00  0.1400E+03
  36.200  0.0000E+00  0.1400E+03
  36.250  0.0000E+00  0.1400E+03
  36.300  0.0000E+00  0.1400E+03
  36.350  0.0000E+00  0.1400E+03
  36.400  0.0000E+00  0.1400E+03
  36.450  0.0000E+00  0.1400E+03
  36.500  0.0000E+00  0.1400E+03
  36.550  0.0000E+00  0.1400E+03
  36.600  0.0000E+00  0.1400E+03
  36.650  0.0000E+00  0.1400E+03
  36.700  0.0000E+00  0.1400E+03
  36.750  0.0000E+00  0.1400E+03
  36.800  0.0000E+00  0.1400E+03
  36.850  0.0000E+00  0.1400E+03
  36.900  0.0000E+00  0.1400E+03
  36.950  0.0000E+00  0.1400E+03
  37.000  0.0000E+00  0.1400E+03
  37.050  0.0000E+00  0.1400E+03
  37.100  0.0000E+00  0.1400E+03
  37.150  0.0000E+00  0.1400E+03
  37.200  0.0000E+00  0.1400E+03
  37.250  0.0000E+00  0.1400E+03
  37.300  0.0000E+00  0.1400E+03
  37.350  0.0000E+00  0.1400E+03
  37.400  0.0000E+00  0.1400E+03
  37.450  0.0000E+00  0.1400E+03
  37.500  0.0000E+00  0.1400E+03
  37.550  0.0000E+00  0.1400E+03
  37.600  0.0000E+00  0.1400E+03
  37.650  0.0000E+00  0.1400E+03
  37.700  0.0000E+00  0.1400E+03
  37.750  0.0000E+00  0.1400E+03
  37.800  0.0000E+00  0.1400E+03
  37.850  0.0000E+00  0.1400E+03
  37.900  0.0000E+00  0.1400E+03
  37.950  0.0000E+00  0.1400E+03
  38.000  0.0000E+00  0.1400E+03
  38.050  0.0000E+00  0.1400E+03
  38.100  0.0000E+00  0.1400E+03
  38.150  0.0000E+00  0.1400E+03
  38.200  0.0000E+00  0.1400E+03
  38.250  0.0000E+00  0.1400E+03
  38.300  0.0000E+00  0.1400E+03
  38.350  0.0000E+00  0.1400E+03
  38.400  0.0000E+00  0.1400E+03
  38.450  0.0000E+00  0.1400E+03
  38.500  0.0000E+00  0.1400E+03
  38.550  0.0000E+00  0.1400E+03
  38.600  0.0000E+00  0.1400E+03
  38.650  0.0000E+00  0.1400E+03
  38.700  0.0000E+00  0.1400E+03
  38.750  0.0000E+00  0.1400E+03
  38.800  0.0000E+00  0.1400E+03
  38.850  0.0000E+00  0.1400E+03
  38.900  0.0000E+00  0.1400E+03
  38.950  0.0000E+00  0.1400E+03
  39.000  0.0000E+00  0.1400E+03
  39.050  0.0000E+00  0.1400E+03
  39.100  0.0000E+00  0.1400E+03
  39.150  0.0000E+00  0.1400E+03
  39.200  0.0000E+00  0.1400E+03
  39.250  0.0000E+00  0.1400E+03
  39.300  0.0000E+00  0.1400E+03
  39.350  0.0000E+00  0.1400E+03
  39.400  0.0000E+00  0.1400E+03
  39.450  0.0000E+00  0.1400E+03
  39.500  0.0000E+00  0.1400E+03
  39.550  0.0000E+00  0.1400E+03
  39.600  0.0000E+00  0.1400E+03
  39.650  0.0000E+00  0.1400E+03
  39.700  0.0000E+00  0.1400E+03
  39.750  0.0000E+00  0.1400E+03
  39.800  0.0000E+00  0.1400E+03
  39.850  0.0000E+00  0.1400E+03
  39.900  0.0000E+00  0.1400E+03
  39.950  0.0000E+00  0.1400E+03
  40.000  0.0000E+00  0.1400E+03
